binmids - fit	dM/dlogD (ug/m3) - fit	dN/dlogD (1/cm3) - fit		binmids - meas	dM/dlogD (ug/m3) - meas	dN/dlogD (1/cm3) - meas
10	3.96E-05	73.8915		76.4851	0.00343455	8.14458
10.2365	4.53E-05	78.3865		79.3922	0.0615494	130.502
10.4786	5.18E-05	83.0548		82.4099	0.0670375	127.089
10.7265	5.91E-05	87.895		85.5422	0.066	111.875
10.9802	6.74E-05	92.9051		88.7936	0.0659587	99.9667
11.2399	7.68E-05	98.0824		92.1686	0.0647443	87.7366
11.5057	8.74E-05	103.423		95.6719	0.067153	81.3656
11.7778	9.93E-05	108.924		99.3084	0.0663718	71.9043
12.0564	0.000112728	114.578		103.083	0.0674599	65.3452
12.3416	0.000127795	120.381		107.001	0.0696135	60.2916
12.6335	0.0001447	126.326		111.068	0.0700126	54.2171
12.9323	0.000163643	132.404		115.29	0.0734507	50.8571
13.2382	0.000184842	138.607		119.672	0.0725095	44.8897
13.5513	0.000208534	144.926		124.221	0.0760456	42.0942
13.8718	0.000234977	151.35		128.942	0.0754913	37.363
14.1999	0.000264452	157.868		133.843	0.079025	34.9707
14.5357	0.000297264	164.469		138.93	0.073438	29.0574
14.8795	0.000333742	171.139		144.211	0.0816024	28.8693
15.2314	0.000374242	177.865		149.692	0.0818327	25.8855
15.5917	0.000419148	184.633		155.382	0.0813535	23.0092
15.9605	0.000468874	191.427		161.288	0.0821647	20.7781
16.338	0.000523863	198.232		167.419	0.0769164	17.3915
16.7244	0.000584591	205.031		173.782	0.0800413	16.1818
17.12	0.000651569	211.807		180.388	0.0795562	14.3808
17.5249	0.00072534	218.544		187.244	0.0773353	12.4992
17.9394	0.000806486	225.224		194.361	0.0682641	9.86494
18.3637	0.000895621	231.827		201.749	0.0730191	9.43483
18.798	0.000993404	238.337		209.417	0.0621225	7.17699
19.2426	0.00110053	244.734		217.377	0.0551666	5.69857
19.6977	0.00121772	251		225.639	0.0561698	5.18786
20.1636	0.00134576	257.115		234.215	0.0475227	3.92449
20.6405	0.00148547	263.063		243.118	0.255558	18.8698
21.1287	0.00163768	268.823				
21.6284	0.00180331	274.379				
22.14	0.00198328	279.711				
22.6637	0.00217857	284.804				
23.1997	0.00239019	289.64				
23.7484	0.00261919	294.202				
24.3101	0.00286664	298.477				
24.8851	0.00313367	302.448				
25.4737	0.00342143	306.103				
26.0762	0.00373108	309.428				
26.6929	0.00406382	312.413				
27.3242	0.00442087	315.046				
27.9705	0.00480346	317.318				
28.6321	0.00521283	319.221				
29.3093	0.00565024	320.749				
30.0025	0.00611693	321.896				
30.7121	0.00661414	322.657				
31.4385	0.00714309	323.03				
32.1821	0.00770499	323.013				
32.9433	0.00830102	322.608				
33.7224	0.00893232	321.814				
34.52	0.00959998	320.635				
35.3365	0.010305	319.076				
36.1723	0.0110485	317.141				
37.0278	0.0118312	314.838				
37.9036	0.012654	312.175				
38.8001	0.0135176	309.161				
39.7178	0.0144226	305.808				
40.6572	0.0153696	302.126				
41.6188	0.0163589	298.128				
42.6031	0.0173908	293.829				
43.6108	0.0184654	289.243				
44.6423	0.0195826	284.385				
45.6981	0.0207422	279.271				
46.779	0.0219439	273.919				
47.8854	0.0231871	268.346				
49.018	0.0244709	262.569				
50.1773	0.0257946	256.607				
51.3641	0.0271569	250.478				
52.579	0.0285565	244.2				
53.8226	0.0299918	237.793				
55.0956	0.0314611	231.275				
56.3987	0.0329623	224.664				
57.7326	0.0344934	217.979				
59.0981	0.0360518	211.238				
60.4959	0.0376349	204.459				
61.9267	0.0392399	197.659				
63.3914	0.0408638	190.854				
64.8907	0.0425033	184.062				
66.4255	0.044155	177.297				
67.9966	0.0458153	170.575				
69.6049	0.0474804	163.911				
71.2512	0.0491464	157.316				
72.9364	0.0508091	150.805				
74.6615	0.0524645	144.39				
76.4273	0.0541081	138.08				
78.235	0.0557355	131.887				
80.0854	0.0573423	125.82				
81.9796	0.058924	119.887				
83.9185	0.0604758	114.097				
85.9034	0.0619933	108.455				
87.9351	0.0634719	102.968				
90.015	0.0649069	97.6402				
92.144	0.0662939	92.4768				
94.3234	0.0676285	87.4809				
96.5543	0.0689064	82.6551				
98.838	0.0701233	78.0014				
101.176	0.0712751	73.5209				
103.569	0.0723581	69.2143				
106.018	0.0733685	65.0814				
108.526	0.0743028	61.1215				
111.093	0.0751579	57.3334				
113.72	0.0759306	53.7152				
116.41	0.0766182	50.2647				
119.163	0.0772184	46.9791				
121.982	0.077729	43.8553				
124.867	0.0781481	40.8899				
127.82	0.0784742	38.0791				
130.843	0.0787061	35.4187				
133.938	0.0788431	32.9045				
137.106	0.0788845	30.5319				
140.349	0.0788304	28.2962				
143.668	0.0786807	26.1927				
147.066	0.0784362	24.2162				
150.545	0.0780976	22.362				
154.105	0.0776663	20.6248				
157.75	0.0771437	18.9996				
161.481	0.0765317	17.4814				
165.3	0.0758326	16.0651				
169.21	0.0750488	14.7458				
173.212	0.074183	13.5185				
177.309	0.0732384	12.3784				
181.503	0.0722181	11.3208				
185.796	0.0711257	10.3411				
190.19	0.069965	9.43473				
194.688	0.0687398	8.59746				
199.293	0.0674541	7.82505				
204.007	0.0661123	7.11344				
208.832	0.0647186	6.45876				
213.771	0.0632775	5.85726				
218.827	0.0617935	5.30537				
224.003	0.0602712	4.79969				
229.301	0.0587151	4.33698				
234.724	0.0571299	3.91414				
240.276	0.0555201	3.52828				
245.959	0.0538902	3.17662				
251.777	0.0522448	2.85656				
257.732	0.0505882	2.56565				
263.827	0.0489248	2.30159				
270.067	0.0472587	2.06222				
276.455	0.045594	1.84551				
282.994	0.0439347	1.64959				
289.687	0.0422844	1.47269				
296.539	0.0406467	1.31317				
303.552	0.0390252	1.16953				
310.732	0.0374229	1.04034				
318.081	0.0358429	0.924301				
325.604	0.034288	0.820217				
333.306	0.0327608	0.726977				
341.189	0.0312637	0.64356				
349.259	0.0297988	0.569028				
357.519	0.0283681	0.50252				
365.975	0.0269734	0.443251				
374.631	0.0256162	0.390502				
383.492	0.0242978	0.343614				
392.562	0.0230193	0.301993				
401.847	0.0217816	0.265092				
411.352	0.0205855	0.232421				
421.081	0.0194315	0.20353				
431.04	0.0183199	0.178015				
441.235	0.0172511	0.155512				
451.671	0.0162248	0.135689				
462.354	0.0152412	0.11825				
473.29	0.0142998	0.102929				
484.484	0.0134003	0.0894843				
495.943	0.0125421	0.0777021				
507.673	0.0117247	0.06739				
519.68	0.0109473	0.058376				
531.971	0.010209	0.0505067				
544.554	0.00950899	0.0436455				
557.433	0.00884624	0.0376709				
570.618	0.0082197	0.032475				
584.114	0.00762827	0.0279621				
597.929	0.00707082	0.0240472				
612.071	0.00654616	0.0206555				
626.548	0.00605309	0.0177208				
641.367	0.00559037	0.0151847				
656.536	0.00515677	0.0129959				
672.065	0.00475103	0.0111092				
687.96	0.00437191	0.00948497				
704.232	0.00401816	0.00808843				
720.888	0.00368856	0.0068892				
737.939	0.0033819	0.0058607				
755.392	0.00309697	0.00497974				
773.259	0.00283261	0.0042261				
791.548	0.00258767	0.00358219				
810.269	0.00236105	0.00303273				
829.434	0.00215167	0.00256445				
849.051	0.00195847	0.00216587				
869.133	0.00178047	0.00182703				
889.69	0.00161667	0.00153934				
910.733	0.00146617	0.00129539				
932.273	0.00132807	0.00108879				
954.323	0.00120152	0.000914034				
976.895	0.00108571	0.000766402				
1000	0.000979868	0.00064184					